# FREQS (CM^-1)
36.1087
36.1087
38.0572
38.0572
38.1897
38.1897
39.4081
39.4081
39.6826
42.5993
42.5993
49.3257
49.3257
49.6484
49.6484
49.6484
49.6484
51.3196
51.3196
51.3196
51.3196
51.4802
51.4802
51.8952
51.8952
51.8952
51.8952
51.9166
51.9166
52.2199
52.2199
54.4379
54.4379
54.4379
54.4379
55.4060
55.4060
55.4060
55.4060
55.6289
55.6289
55.6289
55.6289
56.4116
56.4116
58.1596
58.1596
61.1711
61.1711
61.1711
61.1711
63.4851
63.4851
63.5856
63.5856
63.5856
63.5856
64.2197
64.2197
64.2197
64.2197
64.5958
64.5958
64.6999
64.6999
64.6999
64.6999
65.4122
65.4122
65.4122
65.4122
65.6904
65.6904
65.6904
65.6904
65.8566
65.8566
65.8566
65.8566
66.2080
66.2080
66.7703
66.7703
67.1735
67.1735
67.2181
67.2181
67.7286
67.7286
67.9377
67.9377
68.0502
68.0502
68.0502
68.0502
68.6644
68.6644
68.6644
68.6644
68.7177
68.7177
68.7177
68.7177
68.7716
68.7716
68.7716
68.7716
69.0418
69.0418
69.3577
69.3577
69.3577
69.3577
69.5826
69.5826
69.6763
69.6763
69.6763
69.6763
70.6128
70.6128
70.6128
70.6128
71.3628
71.3628
71.5048
71.5048
71.5048
71.5048
72.5077
72.5077
72.5077
72.5077
73.2056
73.2056
73.8936
73.8936
73.8936
73.8936
74.2936
74.2936
74.2936
74.2936
74.2936
74.2936
74.2936
74.2936
74.9643
74.9643
75.6571
75.6571
75.6571
75.6571
77.0404
77.0404
77.0404
77.0404
77.1713
77.1713
77.4443
77.4443
77.7043
77.7043
77.7043
77.7043
77.7982
77.7982
77.8481
77.8481
78.0495
78.0495
78.0495
78.0495
78.1465
78.1465
78.1465
78.1465
78.4357
78.4357
78.4357
78.4357
78.7017
78.7017
78.7017
78.7017
78.7530
78.7530
79.0538
79.0538
79.0538
79.0538
79.5140
79.5140
79.5140
79.5140
79.7188
79.7188
79.8608
79.8608
79.8608
79.8608
79.8804
80.0567
80.0567
80.0567
80.0567
81.1224
81.1224
81.4636
81.4636
81.4636
81.4636
82.5526
82.5526
82.6074
82.6074
82.6074
82.6074
82.9265
82.9265
83.4825
83.4825
83.4825
83.4825
85.6328
85.6328
85.6328
85.6328
86.6334
86.6334
86.7678
86.7678
86.9871
86.9871
86.9871
86.9871
90.3673
90.3673
90.3673
90.3673
90.4064
90.4064
90.4174
90.4174
91.8315
91.8315
92.5511
92.5511
92.7073
93.6964
93.6964
93.6964
93.6964
93.7355
93.7355
94.0148
94.0148
94.3678
94.3678
94.6644
94.6644
95.7800
95.7800
95.7800
95.7800
95.9426
95.9426
95.9426
95.9426
96.0572
96.0572
96.0572
96.0572
96.0986
96.0986
96.0997
96.0997
96.3388
96.3388
96.3965
96.3965
97.1036
97.1036
97.4504
97.4504
97.4626
97.6914
97.6914
97.6914
97.6914
98.9432
98.9432
98.9432
98.9432
98.9622
98.9622
99.5730
99.5730
99.5730
99.5730
100.1729
100.1729
100.5292
100.5292
100.6117
100.6117
100.6117
100.6117
100.7689
100.7689
100.7689
100.7689
100.8918
100.8918
100.8918
100.8918
101.3300
101.3300
101.4982
101.4982
101.5005
101.5005
102.0040
102.0040
102.0040
102.0040
103.0965
103.0965
103.0965
103.0965
103.3291
103.3291
103.3291
103.3291
103.8015
103.8015
104.0033
104.0033
104.0033
104.0033
104.3081
104.3081
104.3668
104.3668
104.3668
104.3668
104.8875
104.8875
104.8875
104.8875
105.7723
105.7723
105.7944
105.7944
105.7944
105.7944
106.0404
106.0404
106.0486
106.0486
106.0486
106.0486
106.7327
106.7327
107.1434
107.1434
107.1434
107.1434
107.7883
107.7883
108.8560
108.8560
108.8560
108.8560
108.9050
108.9050
109.1422
109.1422
109.1422
109.1422
109.6563
109.6563
109.7242
109.7242
110.1060
110.1060
110.1060
110.1060
110.5998
110.5998
110.5998
110.5998
111.8162
111.8162
111.8162
111.8162
111.9527
111.9527
111.9527
111.9527
112.1074
112.1074
112.3729
112.3729
112.3729
112.3729
112.7270
112.7270
112.7270
112.7270
112.7407
112.7407
114.1131
114.1131
114.1131
114.1131
114.7852
114.7852
115.7267
115.7267
116.3021
116.3021
116.3021
116.3021
116.6773
116.6773
116.6773
116.6773
116.7168
116.7168
116.7168
116.7168
116.7312
116.7312
116.7312
116.7312
116.7723
116.7723
117.0290
117.0290
117.0290
117.0290
117.0293
117.2045
117.2045
117.2045
117.2045
117.3458
117.3458
117.5741
117.5741
117.5937
117.5937
117.5937
117.5937
118.1771
118.1771
118.6864
118.6864
119.1598
119.1598
119.1598
119.1598
119.4641
119.4641
119.7745
119.7745
119.9699
119.9699
119.9699
119.9699
120.2404
120.2404
120.2404
120.2404
120.7427
120.7427
120.7427
120.7427
121.3867
121.3867
121.3867
121.3867
121.5235
121.5235
121.5235
121.5235
121.8058
121.8058
121.8058
121.8058
122.2606
122.2606
122.3721
122.3721
122.3721
122.3721
122.6086
122.6086
122.7621
122.7621
122.7621
122.7621
122.7621
122.7621
122.7621
122.7621
122.8340
122.8340
122.8340
122.8340
123.0458
123.0458
123.1330
123.1330
123.1330
123.1330
123.1553
123.1553
123.3379
123.3379
123.3379
123.3379
123.7793
123.7793
123.7793
123.7793
124.4518
124.4518
124.6956
124.6956
124.6956
124.6956
124.7888
124.7888
125.0398
125.0398
126.2609
126.2609
127.0471
127.0471
127.4959
127.7888
127.7888
127.9309
127.9309
127.9309
127.9309
128.1383
128.1383
128.7197
128.7197
128.7197
128.7197
129.4638
129.4638
129.4943
129.4943
129.5638
129.5638
129.5638
129.5638
129.9301
129.9301
130.0417
130.0417
130.0417
130.0417
130.2609
130.2609
130.2609
130.2609
130.5082
130.5082
130.7130
130.7130
130.7880
130.7880
131.3498
131.3498
131.4764
131.4764
131.8068
131.8068
131.8068
131.8068
132.2854
132.2854
132.2854
132.2854
132.6262
132.6262
133.1888
133.1888
133.1888
133.1888
133.3578
133.3578
133.6183
133.6183
133.6183
133.6183
134.3478
134.3478
134.3478
134.3478
135.2173
135.2173
135.2173
135.2173
135.2852
135.2852
135.2852
135.2852
135.3586
135.3586
135.3586
135.3586
136.1056
136.1056
136.3685
136.3685
137.4558
137.4558
137.5074
137.5074
137.5074
137.5074
137.8720
137.8720
138.2283
138.2283
138.7738
138.7738
138.7738
138.7738
139.0120
139.0120
139.0120
139.0120
139.1405
139.1405
139.1405
139.1405
140.0980
140.0980
140.1586
140.1586
140.5014
140.5014
140.5014
140.5014
140.6396
140.6396
140.6396
140.6396
140.6962
140.6962
140.6962
140.6962
140.8046
140.8046
140.8046
140.8046
140.8046
140.8046
140.8046
140.8046
141.2712
141.2712
141.2752
141.2752
141.2752
141.2752
141.3928
141.3928
141.3928
141.3928
141.4102
141.4102
141.4102
141.4102
142.0179
142.0179
142.8896
142.8896
143.8593
143.8593
143.9921
143.9921
143.9921
143.9921
144.0142
144.0142
144.0142
144.0142
144.6675
144.6675
144.8961
144.8961
145.0157
145.0157
145.0157
145.0157
145.3801
145.3801
146.0237
146.0237
146.0237
146.0237
147.0169
147.0169
147.0169
147.0169
147.3436
147.3436
147.3436
147.3436
147.4841
147.4841
147.4841
147.4841
147.7748
147.7748
147.7748
147.7748
147.8361
147.8361
148.0185
148.0185
148.1406
148.1406
148.1406
148.1406
148.3126
148.3126
148.3126
148.3126
148.3484
148.3484
148.3484
148.3484
148.4967
148.4967
148.4967
148.4967
148.5862
148.5862
148.5862
148.5862
148.6670
148.6670
148.6670
148.6670
149.0771
149.0771
149.3313
149.3313
149.3375
149.3375
149.3375
149.3375
149.7566
149.7566
149.8179
149.8179
149.9217
149.9217
150.0151
150.0868
150.0868
150.0868
150.0868
150.3575
150.3575
150.4959
150.4959
150.4959
150.4959
150.5104
150.5104
152.1089
152.1089
152.1521
152.4153
152.4153
152.7793
152.7793
152.8547
152.8547
152.8547
152.8547
153.7596
153.7596
153.9563
153.9563
153.9563
153.9563
154.0697
154.0697
154.1593
154.1593
154.2566
154.2566
154.3161
154.3161
154.3161
154.3161
154.5752
154.5752
154.5752
154.5752
155.4259
155.4259
155.4259
155.4259
157.5006
157.5006
157.5006
157.5006
157.8376
157.8376
157.9371
157.9371
158.4144
158.4144
158.4144
158.4144
158.4169
158.4169
158.4169
158.4169
158.4919
158.4919
158.4919
158.4919
158.7878
158.7878
160.4036
160.4036
160.7443
160.7443
161.0358
161.0358
161.0358
161.0358
161.1220
161.1220
161.4326
161.4326
161.6681
161.6681
161.6681
161.6681
162.5557
162.5557
162.5557
162.5557
163.2168
163.2168
163.2168
163.2168
163.2168
163.2168
163.2168
163.2168
164.1192
164.1192
164.4523
164.4523
164.4523
164.4523
164.8482
164.8482
164.8482
164.8482
164.8732
164.8732
164.8732
164.8732
164.9006
164.9006
165.4332
165.4332
166.8234
166.8234
166.8476
166.8476
166.8476
166.8476
167.4387
167.4387
167.4752
167.4752
167.4752
167.4752
167.8583
167.8583
167.9944
167.9944
167.9944
167.9944
168.1978
168.1978
168.1978
168.1978
168.3656
168.3656
168.4972
168.4972
168.4972
168.4972
168.8849
168.8849
169.3873
169.3873
169.4285
169.4285
170.0241
170.0241
170.0241
170.0241
170.2420
170.2420
170.5010
170.5010
170.6678
170.6678
170.6678
170.6678
170.8759
170.8759
171.4679
171.4679
171.7763
171.7763
171.7763
171.7763
172.8226
172.8226
172.8226
172.8226
173.3022
173.3022
173.3925
173.3925
173.9821
173.9821
173.9821
173.9821
174.8324
174.8324
174.8324
174.8324
175.1833
175.1833
175.8361
176.2635
176.2635
176.4877
176.4877
176.4877
176.4877
176.9502
176.9502
177.4620
178.3520
178.3520
178.3520
178.3520
178.6923
178.6923
179.7222
179.7222
179.8490
179.8490
179.8490
179.8490
179.8668
179.8668
180.3030
180.3030
180.7767
180.7767
181.5841
181.5841
181.5853
181.5853
181.5853
181.5853
181.6507
181.6507
181.6507
181.6507
181.6710
181.6710
181.6710
181.6710
181.8301
181.8301
181.8301
181.8301
182.3970
182.3970
182.3970
182.3970
182.5268
182.5268
183.0847
183.0847
183.2764
183.2764
183.2764
183.2764
183.3951
183.3951
183.5195
183.5195
183.7727
183.7727
183.7727
183.7727
184.5462
184.5462
185.0457
185.0457
185.0457
185.0457
185.2617
185.2617
185.2617
185.2617
185.4359
185.4359
185.4359
185.4359
185.9455
185.9455
185.9455
185.9455
186.0324
186.0324
186.0324
186.0324
186.2418
186.2418
186.4325
186.4325
186.5431
186.5431
186.5583
186.5583
186.5583
186.5583
187.0588
187.0588
187.1848
187.1848
187.7288
187.7288
187.7288
187.7288
187.7879
187.7879
188.9395
188.9395
189.3005
189.3005
189.3578
189.3578
189.3578
189.3578
189.3985
189.3985
189.3985
189.3985
189.5536
189.5536
189.5663
189.5663
189.5663
189.5663
189.6169
189.6169
189.6514
189.6514
190.5279
190.5279
190.5279
190.5279
190.5892
190.5892
190.5892
190.5892
190.7748
190.7748
190.7748
190.7748
191.4213
191.4213
191.4213
191.4213
191.7496
191.7496
191.7496
191.7496
192.0666
192.0666
192.1149
192.1149
192.1149
192.1149
192.1562
192.1562
192.2369
192.2369
192.2369
192.2369
192.3939
192.3939
192.3939
192.3939
193.1625
193.3398
193.3398
194.1700
194.1700
194.1700
194.1700
194.2717
194.2717
194.8219
194.8219
194.8219
194.8219
195.1386
195.1386
195.2323
195.2323
195.2323
195.2323
195.3983
195.3983
195.6998
195.6998
195.6998
195.6998
196.2999
196.2999
197.6769
197.6769
197.6769
197.6769
197.6769
197.6769
197.6769
197.6769
197.6916
197.6916
197.6916
197.6916
198.1579
198.1579
198.1579
198.1579
198.3195
198.3195
198.3195
198.3195
198.3240
198.3240
198.3240
198.3240
198.4474
198.4474
198.7920
198.7920
198.7920
198.7920
198.9638
198.9638
199.4054
199.4054
199.5440
199.5440
199.5440
199.5440
201.0524
201.0524
201.0524
201.0524
201.5645
201.5645
201.5645
201.5645
203.1314
203.1314
204.8289
204.8289
204.9059
204.9059
205.2547
205.2547
205.2547
205.2547
206.1268
206.1268
206.1268
206.1268
207.1440
207.1440
207.1789
207.1789
207.1789
207.1789
207.3638
207.3638
207.3853
207.3853
207.3853
207.3853
207.6662
207.6662
207.6662
207.6662
207.8748
207.8748
207.8748
207.8748
208.2662
208.2662
208.2662
208.2662
208.7871
208.7871
211.2431
211.2431
211.2431
211.2431
211.9646
211.9646
213.5338
213.5338
213.5338
213.5338
213.5608
213.5608
213.5608
213.5608
213.7601
213.7601
213.7601
213.7601
214.3703
214.3703
214.3703
214.3703
214.3751
214.3751
215.2354
215.2354
215.3578
215.3578
215.3578
215.3578
215.6954
215.6954
215.6954
215.6954
216.3723
216.3723
217.0141
217.0141
217.7614
217.7614
217.7758
217.7758
218.9046
218.9046
218.9046
218.9046
219.1077
219.1077
219.1077
219.1077
219.1425
219.1425
219.2758
219.2758
219.5753
219.5753
219.5753
219.5753
219.8329
219.8329
220.3257
220.3257
220.3257
220.3257
222.4873
222.4873
222.8715
222.8715
222.8715
222.8715
223.0815
223.0815
225.4669
225.4669
225.8302
225.8302
225.8775
225.8775
225.8897
225.8897
226.2551
226.2551
226.2551
226.2551
227.1681
227.1681
227.1681
227.1681
227.2333
227.2333
227.2333
227.2333
227.8869
228.9292
228.9292
228.9538
228.9538
229.2976
229.2976
229.2976
229.2976
229.9445
229.9445
230.2394
230.2394
230.2394
230.2394
231.8324
231.8324
231.8324
231.8324
231.9746
231.9746
231.9746
231.9746
232.2157
232.2157
232.3158
232.3158
233.2803
233.2803
233.2803
233.2803
233.5502
233.5502
233.6229
233.6229
233.6229
233.6229
233.7683
233.7683
233.7683
233.7683
235.4003
235.4003
235.4003
235.4003
235.4349
235.4349
235.4349
235.4349
236.6179
236.6179
236.6179
236.6179
236.7303
237.0595
237.0595
237.0595
237.0595
237.2053
237.2053
237.2053
237.2053
237.5447
237.5447
237.5447
237.5447
237.6637
237.6637
237.6637
237.6637
238.1977
238.1977
238.6576
238.6576
238.7722
238.7722
238.8442
238.8442
240.5174
240.5174
240.9258
240.9258
240.9725
240.9725
241.8528
241.8528
241.8528
241.8528
242.0469
242.0469
243.5285
243.5285
244.4179
244.4179
244.4179
244.4179
244.7629
244.7629
244.7635
244.7635
244.9772
244.9772
244.9772
244.9772
245.0081
245.0081
245.0081
245.0081
245.0599
245.0599
245.0599
245.0599
245.7338
245.7338
245.7338
245.7338
245.8737
245.8737
245.8737
245.8737
246.7388
246.7388
250.5484
250.5484
250.5484
250.5484
250.6182
250.6182
250.9216
250.9216
250.9216
250.9216
250.9216
250.9216
250.9216
250.9216
251.2293
251.2293
251.2293
251.2293
251.3784
251.3784
251.3784
251.3784
251.9963
251.9963
252.0501
252.0501
252.0501
252.0501
252.1500
252.1500
254.1065
254.1065
254.2249
254.2249
254.2249
254.2249
254.2568
254.2568
254.2568
254.2568
254.3261
254.3261
254.3261
254.3261
256.3929
256.3929
256.8295
256.8295
256.8295
256.8295
257.1660
257.1660
257.1660
257.1660
257.3056
257.3056
263.9551
263.9551
263.9551
263.9551
264.3654
264.3654
264.3654
264.3654
265.0642
265.0642
265.4746
265.4746
265.5053
267.6726
267.6726
268.4093
268.4093
268.4621
268.4621
268.4621
268.4621
270.4986
270.4986
270.4986
270.4986
273.1729
273.1729
273.1729
273.1729
274.4215
274.4215
275.2022
275.2022
275.2161
275.2161
275.6721
275.6721
275.6721
275.6721
275.8486
275.8486
275.8486
275.8486
275.9764
275.9764
276.2026
276.2026
278.9806
278.9806
279.7761
279.7761
279.8272
279.8272
279.8272
279.8272
282.5187
282.5187
282.5187
282.5187
284.3066
284.3066
284.3066
284.3066
284.3136
284.3136
284.5438
284.5438
284.5438
284.5438
284.5697
284.5697
284.8512
284.8512
284.8512
284.8512
286.1935
286.1935
286.4703
286.4703
286.5685
286.5685
286.5685
286.5685
286.6144
286.6144
286.6144
286.6144
287.9516
287.9516
288.1764
288.1764
288.2572
288.6973
288.6973
288.7083
288.7083
288.7083
288.7083
290.0511
290.0511
290.0511
290.0511
290.3056
290.3056
290.3056
290.3056
290.7960
290.7960
290.7960
290.7960
290.8217
290.8217
290.8217
290.8217
290.8895
290.8895
290.8895
290.8895
290.8960
290.8960
290.8960
290.8960
291.0745
291.0745
291.0745
291.0745
291.2138
291.2138
291.2381
291.2381
291.2381
291.2381
291.6350
291.6350
291.6536
291.6536
291.6536
291.6536
292.0622
292.0622
292.0622
292.0622
292.4560
292.7160
292.7160
292.7172
292.7172
292.7781
292.7781
292.7781
292.7781
292.8855
292.8855
292.8855
292.8855
292.9591
292.9591
292.9591
292.9591
292.9726
292.9726
293.2133
293.2133
293.3675
293.3675
293.4396
293.4396
293.5348
293.5348
293.5348
293.5348
293.5431
293.5431
293.5431
293.5431
293.6001
293.6001
293.6001
293.6001
293.6835
293.6835
293.6835
293.6835
293.8212
293.8212
293.8212
293.8212
293.8212
293.8212
293.8212
293.8212
294.2877
294.2877
294.5903
294.5903
294.5903
294.5903
294.7578
295.2651
295.2651
295.2651
295.2651
295.4513
295.4513
295.6031
295.6031
295.7573
295.7573
295.8115
295.8115
295.8115
295.8115
297.5587
297.5587
297.7467
297.7467
297.7467
297.7467
298.2461
298.2461
298.2461
298.2461
298.3057
298.3057
298.3057
298.3057
298.3627
298.3627
298.4042
298.4042
298.5879
298.5879
298.5879
298.5879
299.0670
299.0670
299.0670
299.0670
299.1337
299.1337
299.1337
299.1337
299.4497
299.4497
299.5808
299.5808
299.5808
299.5808
300.1117
300.1117
300.1117
300.1117
300.2157
300.2157
300.3155
300.5400
300.5400
300.7144
300.7144
300.8767
300.8767
301.0760
301.0760
301.0760
301.0760
301.3040
301.3040
301.8168
301.8168
301.8168
301.8168
301.8459
301.8459
302.1380
302.1380
302.1380
302.1380
302.1920
302.1920
302.5366
302.5366
302.7806
302.7806
302.7806
302.7806
302.8144
302.8144
302.9421
302.9421
303.4100
303.4100
303.7187
303.7187
304.8263
304.8263
304.8632
304.8632
304.8632
304.8632
305.1609
305.1609
305.1609
305.1609
305.4787
305.4787
305.9544
305.9544
306.3762
306.3762
307.0348
307.0348
307.1622
307.1622
307.1622
307.1622
307.4826
307.4826
307.5449
307.5449
307.5449
307.5449
307.6307
307.6307
307.6307
307.6307
307.6693
307.6693
307.8189
307.8189
307.8189
307.8189
308.5989
308.5989
308.7478
308.7478
308.9452
308.9452
308.9452
308.9452
309.1323
309.1323
309.1959
309.1959
309.1959
309.1959
309.2188
309.2188
309.2188
309.2188
309.5729
309.5729
309.5729
309.5729
309.6967
309.6967
309.9025
309.9025
309.9025
309.9025
310.0520
310.0520
310.4814
310.4814
310.4814
310.4814
310.5315
310.5315
310.5315
310.5315
311.0150
311.0150
311.0546
311.0546
311.0546
311.0546
311.6521
311.6521
311.8745
311.8745
311.9749
311.9749
311.9749
311.9749
312.0903
312.7178
312.7178
312.7178
312.7178
312.7898
312.7898
312.9451
312.9451
313.0276
313.0276
313.0276
313.0276
313.3873
313.3873
313.5022
313.5022
313.5022
313.5022
313.6045
313.6045
313.6045
313.6045
313.6045
313.6045
313.6045
313.6045
313.8091
313.8091
313.8091
313.8091
313.8092
313.8092
313.8092
313.8092
313.8576
313.8576
313.8576
313.8576
313.9479
313.9479
313.9479
313.9479
314.0240
314.0240
314.0526
314.0526
314.0875
314.0875
314.0875
314.0875
314.1107
314.1107
314.1107
314.1107
314.1428
314.1428
314.3488
314.3488
314.3488
314.3488
314.6395
314.6395
314.6395
314.6395
314.6882
314.6882
314.7615
314.7615
314.7668
314.7668
314.7668
314.7668
314.8343
314.8343
314.9066
314.9066
315.2549
315.2549
315.2549
315.2549
315.4735
315.4735
315.4805
315.4805
315.4805
315.4805
315.5321
315.5321
315.5321
315.5321
315.7022
315.7022
315.8079
315.8079
315.8079
315.8079
315.9914
315.9914
316.0750
316.0750
316.5331
316.5331
316.5815
316.5815
316.5815
316.5815
316.6520
316.6520
316.6520
316.6520
316.7173
316.7173
316.7173
316.7173
316.7476
316.7476
316.8036
316.8036
316.9281
316.9281
316.9281
316.9281
316.9476
316.9476
316.9476
316.9476
317.1406
317.1406
317.1406
317.1406
317.4540
317.4540
317.5548
317.5548
317.5980
317.5980
317.6870
317.6870
317.6870
317.6870
317.8894
317.8894
317.8894
317.8894
318.2641
318.2641
318.2641
318.2641
319.7049
319.7049
319.7049
319.7049
319.7889
319.7889
320.3990
320.3990
320.3990
320.3990
320.7101
320.7101
320.7674
320.8069
320.8069
320.8069
320.8069
320.8234
320.8234
320.8234
320.8234
320.8304
321.0847
321.0847
321.0957
321.0957
321.2240
321.2240
321.5977
321.5977
321.5977
321.5977
321.6157
321.6157
321.8423
321.8423
322.0617
322.0617
322.0617
322.0617
322.1079
322.1079
322.1079
322.1079
322.1500
322.1500
322.5104
322.5104
322.5516
322.5516
322.8732
322.8732
322.8732
322.8732
322.9357
322.9357
322.9357
322.9357
322.9361
322.9361
323.0383
323.0383
323.2145
323.2145
323.2145
323.2145
323.5111
323.5111
323.5111
323.5111
323.5918
323.5918
323.6265
323.6265
323.6265
323.6265
323.7161
323.7683
323.7683
323.8199
323.8199
323.8199
323.8199
323.8199
323.8199
323.8199
323.8199
323.9110
323.9110
323.9110
323.9110
323.9634
323.9634
323.9634
323.9634
324.0312
324.0312
324.0312
324.0312
324.0732
324.0732
324.0732
324.0732
324.1117
324.1117
324.1117
324.1117
324.1285
324.1285
324.1285
324.1285
324.2816
324.2816
324.6154
324.6154
324.9496
324.9496
325.2914
325.2914
325.7798
325.7798
325.7798
325.7798
325.8562
325.8562
325.8562
325.8562
326.1225
326.1225
326.1225
326.1225
326.3388
326.3388
326.3388
326.3388
326.4450
326.4450
326.4450
326.4450
326.8627
326.8627
326.9162
326.9162
327.1429
327.1429
327.1429
327.1429
327.8402
327.8402
327.8402
327.8402
328.3525
328.3525
328.3525
328.3525
328.5725
328.5725
328.5725
328.5725
329.7250
329.7250
330.1722
330.1722
330.1722
330.1722
330.4894
330.4894
330.9753
330.9753
330.9753
330.9753
333.4015
333.5664
333.5664
333.6546
333.6546
333.6546
333.6546
334.8178
334.8178
334.8178
334.8178
336.0028
336.0028
336.0028
336.0028
336.3105
336.3105
336.4918
336.4918
336.4918
336.4918
337.4867
337.4867
337.6518
337.6518
337.6518
337.6518
338.1321
338.1321
338.2881
338.2881
339.3305
339.3305
342.0865
342.0865
342.0865
342.0865
344.5972
344.5972
344.5972
344.5972
346.1819
346.1819
347.3561
347.3561
